data_WaaF-1_20250311_Shun-Tokuda
_mpif_audit_creation_date	2025-03-11
_mpif_audit_generator_version	0.0.1
_mpif_audit_publication_doi	''
_mpif_audit_procedure_status	'success'

#Section 1: Author details
_mpif_audit_contact_author_name	'Shun Tokuda'
_mpif_audit_contact_author_email	s.tokuda@fkf.mpg.de
_mpif_audit_contact_author_id_orcid	0000-0002-4515-3073
_mpif_audit_contact_author_address	'Max Planck Institute for Solid State Research, Stuttgart, Germany'
_mpif_audit_contact_author_phone	?

#Section 2: Product General Information
_mpif_product_type	'porous framework material'
_mpif_product_cas	?
_mpif_product_ccdc	'2321951'
_mpif_product_name_common	'WaaF-1'
_mpif_product_name_systematic	''
_mpif_product_formula	'C30 N2 Rh2'
_mpif_product_formula_weight	1200.24
_mpif_product_state	'solid'
_mpif_product_color	'#6891b1'
_mpif_product_handling_atmosphere	'air'
_mpif_product_handling_note
;
This compound is highly stable in the air.
Avoid acidic condition.
;

#Section 3: Synthesis General Information
_mpif_synthesis_performed_date	2024-02-14
_mpif_synthesis_lab_temperature_C	21
_mpif_synthesis_lab_humidity_percent	24
_mpif_synthesis_type	'mix'
_mpif_synthesis_react_temperature_C	100
_mpif_synthesis_react_temperature_controller	'oven'
_mpif_synthesis_react_time	16
_mpif_synthesis_react_time_unit	'h'
_mpif_synthesis_react_atmosphere	'air'
_mpif_synthesis_react_container	'glass vial'
_mpif_synthesis_react_note
;
Any heating method other than oven can be also used.
Reaction is scalable up to 
;
_mpif_synthesis_product_amount	100
_mpif_synthesis_product_amount_unit	'mg'
_mpif_synthesis_product_yield_percent	85
_mpif_synthesis_scale	'milligram'
_mpif_synthesis_safety_note
;
Compound A is toxic.
Compound B is highly flammable!
;

#Section 4: Synthesis Procedure Details
_mpif_substrate_number	2
loop_
_mpif_substrate_id
_mpif_substrate_name
_mpif_substrate_molarity
_mpif_substrate_molarity_unit
_mpif_substrate_amount
_mpif_substrate_amount_unit
_mpif_substrate_supplier
_mpif_substrate_purity_percent
_mpif_substrate_cas
_mpif_substrate_smiles
R1	metal	1	μmol	10	mg	Ardrich	98	12-3456	?
R2	ligand	2	mmol	33	mL	BLDPharm	99	78-9	?

_mpif_solvent_number	2
loop_
_mpif_solvent_id
_mpif_solvent_name
_mpif_solvent_molarity
_mpif_solvent_molarity_unit
_mpif_solvent_amount
_mpif_solvent_amount_unit
_mpif_solvent_supplier
_mpif_solvent_purity_percent
_mpif_solvent_cas
_mpif_solvent_smiles
S1	Methanol	1.0	mol	100	mL	TCI	98	12-3456	?
S2	DMF	2.00	μmol	300	mL	ThermoFischer	99	78-9	?

_mpif_vessel_number	2
loop_
_mpif_vessel_id
_mpif_vessel_volume
_mpif_vessel_volume_unit
_mpif_vessel_material
_mpif_vessel_type
_mpif_vessel_supplier
_mpif_vessel_purpose
_mpif_vessel_note
V1	50	mL	PP	Centrifuge-tube	-	Storing	-
V2	20	mL	glass	Vial	-	Reaction	This can be substituted with any glass vessel

_mpif_hardware_number	3
loop_
_mpif_hardware_id
_mpif_hardware_purpose
_mpif_hardware_general_name
_mpif_hardware_product_name
_mpif_hardware_supplier
_mpif_hardware_note
H1	Stirring/Mixing	ultrasonic bath	YDH12	Merck	-
H2	Heating/Cooling	convection oven	BV438-X	ThermoFischer	-
H3	Drying	vacuum oven	BAR-435458-RTS	ThermoFischer	-

_mpif_procedure_number	7
loop_
_mpif_procedure_id
_mpif_procedure_type
_mpif_procedure_atmosphere
_mpif_procedure_detail
P1	Preparation	Air	Add the reagent R1 and solvent S1 in the vessel V1.
P2	Preparation	Air	Add R2 and briefly sonicate it with H1.
P3	Preparation	Air	Transfer the mixture to the vessel V2. Seal the vessel with a PP cap.
P4	Reaction	Air	Heat the mixture at 100C in the oven H2 for 16 h.
P5	Work-up	Air	Remove the supernatant using a pippette, leaving the dark precipitate.
P6	Work-up	Air	Throughly wash the solid with the solvent S2.
P7	Work-up	Vacuum	Dry the solid in the vacuum oven H3 at 100C for overnight.

_mpif_procedure_full
;
Add the metal salt 10 mg (1 mmol) and methanol 100 mL in the 50 mL PP tube.
Sonicate the mixture until dissolution.
Add the ligand 33 mL (2.00 mmol) to the mixture and briefly sonicate.
Transfer the mixture to the 20 mL glass vial and seal it with a PP screw-cap.
Heat the mixture at 100C in the oven for 16 h.
Remove the supernatant using a pippette, leaving the dark precipitate.
Throughly wash the product solid with DMF (300 mL in total), by repeating dispersion and sedimentation.
Dry the solid in vacuum at 100C for overnight.
100 mg of light blue solid is recovered.
;

#Characterization Information

_mpif_pxrd_data
;
_mpif_pxrd_source	'Cu'
_mpif_pxrd_lambda	1.54056
loop_
_pxrd_2theta
_pxrd_intensity
3	35584
3.02	43105
3.04	46425
3.06	32540
3.08	17243
3.1	8407
3.12	4675
3.14	3807
3.16	3359
3.18	3082
3.2	2878
3.22	2764
3.24	2790
3.26	2639
3.28	2520
3.3	2488
3.32	2321
3.34	2354
3.36	2234
3.38	2227
3.4	2157
3.42	2125
3.44	2091
3.46	2063
3.48	2062
3.5	2051
3.52	1970
3.54	1942
3.56	1999
3.58	1985
3.6	1931
3.62	1830
3.64	1831
3.66	1853
3.68	1784
3.7	1871
3.72	1757
3.74	1690
3.76	1660
3.78	1765
3.8	1602
3.82	1704
3.84	1688
3.86	1593
3.88	1709
3.9	1705
3.92	1651
3.94	1651
3.96	1678
3.98	1682
4	1613
4.02	1695
4.04	1596
4.06	1612
4.08	1657
4.1	1667
4.12	1640
4.14	1608
4.16	1633
4.18	1631
4.2	1724
4.22	1704
4.24	1686
4.26	1800
4.28	1729
4.3	1831
4.32	1809
4.34	1931
4.36	1909
4.38	2068
4.4	2002
4.42	2095
4.44	2258
4.46	2293
4.48	2347
4.5	2438
4.52	2479
4.54	2478
4.56	2485
4.58	2782
4.6	2900
4.62	3055
4.64	3118
4.66	3317
4.68	3405
4.7	3744
4.72	3957
4.74	4260
4.76	4761
4.78	5015
4.8	5464
4.82	6107
4.84	6815
4.86	7947
4.88	8717
4.9	10361
4.92	12617
4.94	15005
4.96	16984
4.98	14773
5	9351
5.02	4530
5.04	2540
5.06	1932
5.08	1766
5.1	1612
5.12	1638
5.14	1613
5.16	1568
5.18	1534
5.2	1524
5.22	1484
5.24	1521
5.26	1502
5.28	1462
5.3	1436
5.32	1528
5.34	1464
5.36	1496
5.38	1485
5.4	1512
5.42	1416
5.44	1535
5.46	1497
5.48	1521
5.5	1557
5.52	1570
5.54	1555
5.56	1633
5.58	1565
5.6	1703
5.62	1744
5.64	1704
5.66	1916
5.68	1940
5.7	2080
5.72	2174
5.74	2341
5.76	2533
5.78	2945
5.8	3224
5.82	3400
5.84	3219
5.86	2552
5.88	1782
5.9	1467
5.92	1380
5.94	1292
5.96	1271
5.98	1241
6	1236
6.02	1257
6.04	1291
6.06	1266
6.08	1278
6.1	1315
6.12	1341
6.14	1279
6.16	1273
6.18	1309
6.2	1232
6.22	1275
6.24	1227
6.26	1326
6.28	1330
6.3	1378
6.32	1361
6.34	1402
6.36	1429
6.38	1388
6.4	1354
6.42	1430
6.44	1387
6.46	1407
6.48	1466
6.5	1442
6.52	1575
6.54	1533
6.56	1560
6.58	1740
6.6	1749
6.62	1772
6.64	1847
6.66	1995
6.68	2059
6.7	2289
6.72	2349
6.74	2558
6.76	2769
6.78	2867
6.8	3215
6.82	3551
6.84	3882
6.86	4330
6.88	4787
6.9	5503
6.92	6253
6.94	7304
6.96	8557
6.98	10268
7	12148
7.02	13394
7.04	12908
7.06	9489
7.08	4963
7.1	3047
7.12	2017
7.14	1640
7.16	1669
7.18	1675
7.2	1622
7.22	1585
7.24	1588
7.26	1583
7.28	1525
7.3	1696
7.32	1759
7.34	1872
7.36	1897
7.38	2015
7.4	2121
7.42	2224
7.44	2519
7.46	2527
7.48	2941
7.5	3259
7.52	3448
7.54	3830
7.56	4368
7.58	4966
7.6	5908
7.62	7054
7.64	8117
7.66	8724
7.68	7938
7.7	5880
7.72	3402
7.74	1923
7.76	1491
7.78	1357
7.8	1296
7.82	1310
7.84	1220
7.86	1264
7.88	1204
7.9	1191
7.92	1118
7.94	1185
7.96	1166
7.98	1136
8	1127
8.02	1107
8.04	1168
8.06	1174
8.08	1139
8.1	1118
8.12	1164
8.14	1140
8.16	1264
8.18	1159
8.2	1170
8.22	1216
8.24	1203
8.26	1212
8.28	1302
8.3	1302
8.32	1338
8.34	1329
8.36	1462
8.38	1550
8.4	1562
8.42	1639
8.44	1704
8.46	1999
8.48	2074
8.5	2260
8.52	2567
8.54	2848
8.56	3422
8.58	3876
8.6	4157
8.62	4213
8.64	3549
8.66	2583
8.68	1857
8.7	1442
8.72	1241
8.74	1221
8.76	1154
8.78	1162
8.8	1236
8.82	1358
8.84	1329
8.86	1357
8.88	1429
8.9	1429
8.92	1534
8.94	1597
8.96	1671
8.98	1867
9	2154
9.02	2214
9.04	2430
9.06	2896
9.08	3208
9.1	3844
9.12	4318
9.14	4407
9.16	4015
9.18	3026
9.2	2024
9.22	1404
9.24	1110
9.26	1099
9.28	987
9.3	1001
9.32	983
9.34	970
9.36	991
9.38	945
9.4	1011
9.42	1017
9.44	996
9.46	1001
9.48	1005
9.5	1023
9.52	991
9.54	1092
9.56	1025
9.58	1003
9.6	963
9.62	1041
9.64	1034
9.66	1041
9.68	1150
9.7	1119
9.72	1179
9.74	1238
9.76	1235
9.78	1325
9.8	1394
9.82	1505
9.84	1643
9.86	1746
9.88	1998
9.9	2347
9.92	2457
9.94	2696
9.96	2539
9.98	2481
10	1969
10.02	1448
10.04	1200
10.06	1024
10.08	1023
10.1	1014
10.12	1014
10.14	1023
10.16	1020
10.18	1013
10.2	1027
10.22	1050
10.24	1110
10.26	1179
10.28	1136
10.3	1136
10.32	1199
10.34	1300
10.36	1363
10.38	1501
10.4	1493
10.42	1508
10.44	1375
10.46	1290
10.48	1136
10.5	1054
10.52	1067
10.54	1005
10.56	1037
10.58	1003
10.6	951
10.62	1017
10.64	953
10.66	999
10.68	931
10.7	943
10.72	928
10.74	971
10.76	955
10.78	1018
10.8	908
10.82	1058
10.84	1071
10.86	1046
10.88	1088
10.9	1096
10.92	1129
10.94	1233
10.96	1264
10.98	1287
11	1483
11.02	1558
11.04	1707
11.06	1930
11.08	2101
11.1	2313
11.12	2480
11.14	2552
11.16	2366
11.18	1890
11.2	1432
11.22	1133
11.24	1048
11.26	1036
11.28	1047
11.3	1008
11.32	977
11.34	973
11.36	1033
11.38	1067
11.4	1030
11.42	1085
11.44	1070
11.46	1111
11.48	1224
11.5	1274
11.52	1360
11.54	1366
11.56	1365
11.58	1242
11.6	1206
11.62	1065
11.64	1038
11.66	1090
11.68	1118
11.7	1118
11.72	1070
11.74	1006
11.76	1047
11.78	1017
11.8	1005
11.82	1024
11.84	1059
11.86	1127
11.88	1189
11.9	1189
11.92	1239
11.94	1322
11.96	1323
11.98	1382
12	1497
12.02	1610
12.04	1819
12.06	2042
12.08	2322
12.1	2661
12.12	3175
12.14	3612
12.16	4051
12.18	4629
12.2	4953
12.22	4722
12.24	3894
12.26	2884
12.28	1963
12.3	1442
12.32	1346
12.34	1188
12.36	1231
12.38	1276
12.4	1422
12.42	1382
12.44	1515
12.46	1688
12.48	1892
12.5	2033
12.52	2256
12.54	2574
12.56	2832
12.58	2900
12.6	2700
12.62	2307
12.64	1764
12.66	1373
12.68	1168
12.7	1092
12.72	1066
12.74	1047
12.76	1048
12.78	1042
12.8	994
12.82	1015
12.84	1098
12.86	1078
12.88	1082
12.9	1098
12.92	1224
12.94	1230
12.96	1228
12.98	1316
13	1486
13.02	1569
13.04	1744
13.06	2090
13.08	2330
13.1	2674
13.12	3112
13.14	3586
13.16	4031
13.18	4194
13.2	4236
13.22	3681
13.24	2794
13.26	2126
13.28	1626
13.3	1427
13.32	1310
13.34	1374
13.36	1327
13.38	1491
13.4	1610
13.42	1811
13.44	2040
13.46	2304
13.48	2557
13.5	2897
13.52	3197
13.54	3346
13.56	2916
13.58	2542
13.6	2042
13.62	1503
13.64	1136
13.66	1046
13.68	989
13.7	981
13.72	987
13.74	998
13.76	1007
13.78	922
13.8	1003
13.82	937
13.84	967
13.86	875
13.88	994
13.9	961
13.92	1011
13.94	1013
13.96	998
13.98	1060
14	1046
14.02	1059
14.04	1075
14.06	1119
14.08	1146
14.1	1057
14.12	1119
14.14	1147
14.16	1126
14.18	1098
14.2	1089
14.22	1204
14.24	1217
14.26	1330
14.28	1336
14.3	1481
14.32	1655
14.34	1843
14.36	2092
14.38	2370
14.4	2627
14.42	2788
14.44	2830
14.46	2583
14.48	2221
14.5	1842
14.52	1383
14.54	1211
14.56	1201
14.58	1146
14.6	1059
14.62	1182
14.64	1166
14.66	1206
14.68	1302
14.7	1330
14.72	1433
14.74	1569
14.76	1668
14.78	1896
14.8	2273
14.82	2666
14.84	3122
14.86	3737
14.88	4646
14.9	5615
14.92	6670
14.94	7496
14.96	7901
14.98	7575
15	6598
15.02	4950
15.04	3517
15.06	2283
15.08	1655
15.1	1339
15.12	1215
15.14	1174
15.16	1205
15.18	1245
15.2	1314
15.22	1294
15.24	1393
15.26	1390
15.28	1425
15.3	1336
15.32	1241
15.34	1141
15.36	1026
15.38	1021
15.4	1015
15.42	928
15.44	959
15.46	962
15.48	988
15.5	896
15.52	862
15.54	880
15.56	914
15.58	905
15.6	880
15.62	927
15.64	898
15.66	893
15.68	978
15.7	889
15.72	837
15.74	935
15.76	921
15.78	928
15.8	963
15.82	893
15.84	882
15.86	913
15.88	914
15.9	990
15.92	1043
15.94	1025
15.96	1132
15.98	1103
16	1253
16.02	1294
16.04	1307
16.06	1353
16.08	1375
16.1	1446
16.12	1339
16.14	1114
16.16	1017
16.18	974
16.2	1010
16.22	932
16.24	930
16.26	868
16.28	886
16.3	880
16.32	884
16.34	895
16.36	877
16.38	832
16.4	841
16.42	862
16.44	770
16.46	862
16.48	874
16.5	827
16.52	848
16.54	874
16.56	886
16.58	851
16.6	855
16.62	916
16.64	907
16.66	860
16.68	951
16.7	928
16.72	1017
16.74	1012
16.76	1028
16.78	1164
16.8	1192
16.82	1292
16.84	1233
16.86	1344
16.88	1266
16.9	1155
16.92	1030
16.94	960
16.96	909
16.98	882
17	836
17.02	911
17.04	966
17.06	899
17.08	939
17.1	858
17.12	875
17.14	828
17.16	880
17.18	849
17.2	834
17.22	855
17.24	855
17.26	918
17.28	983
17.3	896
17.32	929
17.34	1009
17.36	1010
17.38	1048
17.4	1089
17.42	1220
17.44	1276
17.46	1484
17.48	1639
17.5	1810
17.52	2119
17.54	2232
17.56	2373
17.58	2404
17.6	2260
17.62	1986
17.64	1728
17.66	1391
17.68	1181
17.7	1046
17.72	1017
17.74	946
17.76	952
17.78	961
17.8	1059
17.82	1133
17.84	1212
17.86	1298
17.88	1405
17.9	1545
17.92	1844
17.94	2051
17.96	2296
17.98	2510
18	2805
18.02	2770
18.04	2774
18.06	2553
18.08	2147
18.1	1860
18.12	1674
18.14	1670
18.16	1847
18.18	2109
18.2	2324
18.22	2667
18.24	3007
18.26	3312
18.28	3320
18.3	3054
18.32	2698
18.34	2213
18.36	1698
18.38	1409
18.4	1141
18.42	1063
18.44	933
18.46	967
18.48	918
18.5	972
18.52	932
18.54	907
18.56	908
18.58	911
18.6	983
18.62	957
18.64	865
18.66	885
18.68	929
18.7	815
18.72	861
18.74	804
18.76	886
18.78	967
18.8	835
18.82	944
18.84	965
18.86	1000
18.88	1031
18.9	1033
18.92	1104
18.94	1093
18.96	1095
18.98	1104
19	1081
19.02	976
19.04	983
19.06	932
19.08	943
19.1	917
19.12	916
19.14	875
19.16	892
19.18	956
19.2	946
19.22	975
19.24	989
19.26	1052
19.28	1150
19.3	1215
19.32	1256
19.34	1336
19.36	1409
19.38	1398
19.4	1386
19.42	1284
19.44	1082
19.46	1051
19.48	1045
19.5	977
19.52	950
19.54	979
19.56	1049
19.58	1017
19.6	1141
19.62	1015
19.64	1106
19.66	1017
19.68	999
19.7	995
19.72	920
19.74	874
19.76	894
19.78	884
19.8	884
19.82	874
19.84	887
19.86	911
19.88	973
19.9	1009
19.92	956
19.94	1055
19.96	1113
19.98	1111
20	1160
20.02	1146
20.04	1210
20.06	1172
20.08	1141
20.1	1079
20.12	1118
20.14	1216
20.16	1237
20.18	1377
20.2	1459
20.22	1418
20.24	1535
20.26	1572
20.28	1545
20.3	1475
20.32	1343
20.34	1256
20.36	1183
20.38	1254
20.4	1349
20.42	1378
20.44	1554
20.46	1550
20.48	1870
20.5	2250
20.52	2786
20.54	3321
20.56	4012
20.58	4867
20.6	5521
20.62	5699
20.64	5877
20.66	5571
20.68	4858
20.7	3674
20.72	3180
20.74	2411
20.76	1945
20.78	1838
20.8	1754
20.82	1850
20.84	1876
20.86	1909
20.88	1909
20.9	1750
20.92	1592
20.94	1501
20.96	1334
20.98	1259
21	1098
21.02	1126
21.04	1104
21.06	1103
21.08	1238
21.1	1298
21.12	1475
21.14	1448
21.16	1748
21.18	1908
21.2	1848
21.22	2110
21.24	2190
21.26	2176
21.28	2063
21.3	1855
21.32	1657
21.34	1602
21.36	1543
21.38	1552
21.4	1707
21.42	1831
21.44	1827
21.46	1899
21.48	1894
21.5	1827
21.52	1648
21.54	1570
21.56	1354
21.58	1289
21.6	1319
21.62	1284
21.64	1379
21.66	1638
21.68	1790
21.7	2056
21.72	2462
21.74	2964
21.76	3484
21.78	4018
21.8	4404
21.82	4650
21.84	4885
21.86	4544
21.88	4148
21.9	3139
21.92	2667
21.94	2157
21.96	1744
21.98	1579
22	1615
22.02	1487
22.04	1577
22.06	1597
22.08	1411
22.1	1418
22.12	1332
22.14	1184
22.16	1165
22.18	1125
22.2	1144
22.22	1230
22.24	1238
22.26	1278
22.28	1482
22.3	1661
22.32	1981
22.34	2075
22.36	2228
22.38	2546
22.4	2636
22.42	2666
22.44	2477
22.46	2274
22.48	1908
22.5	1615
22.52	1441
22.54	1281
22.56	1207
22.58	1160
22.6	1198
22.62	1097
22.64	1173
22.66	1139
22.68	1102
22.7	1253
22.72	1204
22.74	1245
22.76	1262
22.78	1471
22.8	1472
22.82	1714
22.84	2131
22.86	2480
22.88	2947
22.9	3568
22.92	3986
22.94	4563
22.96	4963
22.98	4831
23	4587
23.02	3919
23.04	3446
23.06	2906
23.08	2482
23.1	2249
23.12	2110
23.14	2229
23.16	2253
23.18	2225
23.2	2181
23.22	2054
23.24	1743
23.26	1517
23.28	1394
23.3	1271
23.32	1225
23.34	1086
23.36	1090
23.38	1173
23.4	1172
23.42	1226
23.44	1289
23.46	1385
23.48	1455
23.5	1526
23.52	1542
23.54	1614
23.56	1523
23.58	1491
23.6	1470
23.62	1378
23.64	1380
23.66	1416
23.68	1486
23.7	1540
23.72	1515
23.74	1564
23.76	1486
23.78	1338
23.8	1317
23.82	1140
23.84	1174
23.86	1149
23.88	1150
23.9	1158
23.92	1162
23.94	1354
23.96	1499
23.98	1684
24	1823
24.02	1900
24.04	2040
24.06	2175
24.08	2038
24.1	1953
24.12	1654
24.14	1448
24.16	1396
24.18	1185
24.2	1118
24.22	1087
24.24	1134
24.26	1082
24.28	1039
24.3	941
24.32	1003
24.34	957
24.36	861
24.38	885
24.4	899
24.42	915
24.44	893
24.46	919
24.48	855
24.5	835
24.52	867
24.54	872
24.56	917
24.58	892
24.6	835
24.62	833
24.64	899
24.66	853
24.68	855
24.7	920
24.72	838
24.74	926
24.76	944
24.78	994
24.8	949
24.82	930
24.84	889
24.86	892
24.88	915
24.9	911
24.92	927
24.94	972
24.96	973
24.98	984
25	1041
25.02	1141
25.04	1204
25.06	1159
25.08	1261
25.1	1316
25.12	1271
25.14	1265
25.16	1079
25.18	1096
25.2	1008
25.22	1020
25.24	1009
25.26	990
25.28	959
25.3	974
25.32	1028
25.34	1004
25.36	976
25.38	888
25.4	907
25.42	874
25.44	937
25.46	893
25.48	851
25.5	890
25.52	873
25.54	889
25.56	898
25.58	854
25.6	914
25.62	1014
25.64	958
25.66	966
25.68	1111
25.7	1145
25.72	1274
25.74	1320
25.76	1365
25.78	1506
25.8	1415
25.82	1369
25.84	1323
25.86	1268
25.88	1203
25.9	1152
25.92	991
25.94	957
25.96	1015
25.98	993
26	992
26.02	1104
26.04	1173
26.06	1237
26.08	1258
26.1	1307
26.12	1336
26.14	1338
26.16	1373
26.18	1388
26.2	1350
26.22	1469
26.24	1563
26.26	1593
26.28	1597
26.3	1627
26.32	1595
26.34	1467
26.36	1317
26.38	1196
26.4	1007
26.42	1041
26.44	963
26.46	942
26.48	994
26.5	931
26.52	864
26.54	928
26.56	938
26.58	1043
26.6	990
26.62	936
26.64	1005
26.66	981
26.68	979
26.7	1025
26.72	1102
26.74	1052
26.76	1062
26.78	1015
26.8	1071
26.82	981
26.84	1019
26.86	988
26.88	984
26.9	890
26.92	873
26.94	904
26.96	898
26.98	922
27	842
27.02	846
27.04	968
27.06	846
27.08	914
27.1	886
27.12	879
27.14	904
27.16	824
27.18	884
27.2	887
27.22	907
27.24	928
27.26	883
27.28	911
27.3	907
27.32	893
27.34	869
27.36	808
27.38	831
27.4	849
27.42	877
27.44	851
27.46	876
27.48	822
27.5	858
27.52	915
27.54	949
27.56	922
27.58	1000
27.6	1030
27.62	1166
27.64	1283
27.66	1377
27.68	1473
27.7	1587
27.72	1624
27.74	1605
27.76	1533
27.78	1422
27.8	1369
27.82	1203
27.84	1143
27.86	1021
27.88	986
27.9	938
27.92	983
27.94	985
27.96	1089
27.98	1130
28	1152
28.02	1136
28.04	1140
28.06	1183
28.08	1198
28.1	1297
28.12	1337
28.14	1445
28.16	1502
28.18	1528
28.2	1575
28.22	1402
28.24	1338
28.26	1234
28.28	1177
28.3	1091
28.32	958
28.34	934
28.36	921
28.38	812
28.4	858
28.42	933
28.44	929
28.46	886
28.48	921
28.5	922
28.52	954
28.54	961
28.56	1050
28.58	1049
28.6	1128
28.62	1099
28.64	1166
28.66	1091
28.68	1154
28.7	1060
28.72	1077
28.74	976
28.76	1049
28.78	1002
28.8	996
28.82	1029
28.84	1071
28.86	1112
28.88	1105
28.9	1172
28.92	1166
28.94	1228
28.96	1245
28.98	1142
29	1046
29.02	1042
29.04	1144
29.06	1091
29.08	1061
29.1	1024
29.12	1014
29.14	1008
29.16	1005
29.18	953
29.2	922
29.22	888
29.24	905
29.26	938
29.28	906
29.3	996
29.32	966
29.34	1017
29.36	1062
29.38	1066
29.4	1155
29.42	1131
29.44	1197
29.46	1316
29.48	1363
29.5	1427
29.52	1633
29.54	1611
29.56	1477
29.58	1435
29.6	1337
29.62	1256
29.64	1217
29.66	1161
29.68	1034
29.7	1074
29.72	1145
29.74	1160
29.76	1196
29.78	1230
29.8	1293
29.82	1329
29.84	1304
29.86	1247
29.88	1202
29.9	1222
29.92	1216
29.94	1195
29.96	1174
29.98	1203
30	1081
;

_mpif_tga_data
;
loop_
_tga_temperature_celcius
_tga_weight_percent31.281	100
31.298	100.002269
31.315001	100.006808
31.326	100.011347
31.316	100.013617
31.316999	100.018155
31.320999	100.018155
31.347	100.018155
